* Estimated atmospheric values for TJCH. Height estimate:    36.8196 +/- 0.1329 m.
* METUTIL Version 3.0  2009-08-27
* Input files: otesta.036                  tjch0360.15m  ZTD-file sigmas scaled by   1.0
* Yr  Doy Hr Mn Sec  Total Zen  Wet Zen  Sig Zen    PW   Sig PW (mm)  Press (hPa)  Temp (K) ZHD (mm)   Grad NS   Sig NS  Grad EW   Sig EW (mm)
 2015  36  0  0  0.    2372.00    23.77   12.10    3.69    1.88        1029.60      275.96   2348.23    -38.20    28.10    15.10    26.70
 2015  36  1  0  0.    2376.70    27.36    9.90    4.26    1.54        1030.09      276.94   2349.34    -37.93    28.06    15.11    26.59
 2015  36  2  0  0.    2373.40    23.58    9.20    3.68    1.43        1030.30      277.25   2349.82    -37.66    28.01    15.13    26.48
 2015  36  3  0  0.    2374.10    24.05    8.50    3.75    1.32        1030.40      277.16   2350.05    -37.39    27.96    15.14    26.37
 2015  36  4  0  0.    2373.30    24.62    8.90    3.84    1.39        1029.80      277.56   2348.68    -37.12    27.92    15.15    26.25
 2015  36  5  0  0.    2373.60    25.83    8.30    4.03    1.30        1029.40      277.76   2347.77    -36.85    27.87    15.16    26.14
 2015  36  6  0  0.    2374.50    27.87    8.60    4.36    1.35        1028.90      278.56   2346.63    -36.57    27.83    15.18    26.03
 2015  36  7  0  0.    2373.00    26.37    8.00    4.13    1.25        1028.90      278.76   2346.63    -36.30    27.78    15.19    25.91
 2015  36  8  0  0.    2370.50    24.10    8.20    3.77    1.28        1028.80      278.96   2346.40    -36.03    27.74    15.20    25.80
 2015  36  9  0  0.    2372.60    25.97    8.90    4.06    1.39        1028.90      278.66   2346.63    -35.76    27.69    15.21    25.69
 2015  36 10  0  0.    2369.90    22.58    7.80    3.53    1.22        1029.20      278.26   2347.32    -35.49    27.65    15.23    25.57
 2015  36 11  0  0.    2366.20    18.66    7.90    2.91    1.23        1029.30      277.96   2347.54    -35.22    27.60    15.24    25.45
 2015  36 12  0  0.    2366.90    19.36    8.60    3.02    1.34        1029.30      277.66   2347.54    -34.95    27.56    15.25    25.34
 2015  36 13  0  0.    2369.80    21.57    9.30    3.36    1.45        1029.60      276.96   2348.23    -34.68    27.51    15.26    25.22
 2015  36 14  0  0.    2367.40    19.17    8.40    2.98    1.31        1029.60      276.36   2348.23    -34.41    27.46    15.28    25.10
 2015  36 15  0  0.    2368.80    21.26    7.70    3.31    1.20        1029.30      276.26   2347.54    -34.14    27.42    15.29    24.99
 2015  36 16  0  0.    2368.70    21.84    7.80    3.39    1.21        1029.00      276.06   2346.86    -33.87    27.37    15.30    24.87
 2015  36 17  0  0.    2369.40    23.23    7.80    3.61    1.21        1028.70      275.86   2346.17    -33.60    27.33    15.31    24.75
 2015  36 18  0  0.    2370.90    25.41    8.10    3.94    1.26        1028.40      275.56   2345.49    -33.32    27.28    15.33    24.63
 2015  36 19  0  0.    2369.40    24.14    7.50    3.74    1.16        1028.30      275.36   2345.26    -33.05    27.23    15.34    24.51
 2015  36 20  0  0.    2367.70    24.03    8.00    3.73    1.24        1027.60      275.16   2343.67    -32.78    27.19    15.35    24.39
 2015  36 21  0  0.    2368.40    25.42    7.60    3.94    1.18        1027.30      275.26   2342.98    -32.51    27.14    15.36    24.27
 2015  36 22  0  0.    2365.00    22.25    8.00    3.45    1.24        1027.20      275.16   2342.75    -32.24    27.09    15.38    24.15
 2015  36 23  0  0.    2365.00    22.02    8.20    3.41    1.27        1027.30      275.26   2342.98    -31.97    27.05    15.39    24.02
 2015  37  0  0  0.    2365.70    21.81    9.40    3.39    1.46        1027.70      276.66   2343.89    -31.70    27.00    15.40    23.90
