* Estimated atmospheric values for TJCH. Height estimate:    36.9536 +/- 0.1070 m.
* METUTIL Version 3.0  2009-08-27
* Input files: otesta.044                  tjch0440.15m  ZTD-file sigmas scaled by   1.0
* Yr  Doy Hr Mn Sec  Total Zen  Wet Zen  Sig Zen    PW   Sig PW (mm)  Press (hPa)  Temp (K) ZHD (mm)   Grad NS   Sig NS  Grad EW   Sig EW (mm)
 2015  44  0  0  0.    2375.20    50.01   12.00    7.85    1.88        1019.50      279.86   2325.19    -54.00    28.00     8.90    26.90
 2015  44  1  0  0.    2376.70    51.28   11.00    8.08    1.73        1019.60      281.06   2325.42    -53.27    27.94     9.25    26.79
 2015  44  2  0  0.    2372.50    46.51    8.40    7.35    1.33        1019.85      282.51   2325.99    -52.53    27.89     9.61    26.67
 2015  44  3  0  0.    2371.40    45.98    8.10    7.29    1.28        1019.60      283.61   2325.42    -51.80    27.83     9.96    26.55
 2015  44  4  0  0.    2368.20    44.68    8.30    7.10    1.32        1018.77      284.46   2323.52    -51.07    27.77    10.32    26.44
 2015  44  5  0  0.    2368.10    46.10    7.90    7.33    1.26        1018.10      284.86   2322.00    -50.33    27.71    10.67    26.32
 2015  44  6  0  0.    2364.50    43.18    8.10    6.87    1.29        1017.80      285.23   2321.32    -49.60    27.66    11.03    26.21
 2015  44  7  0  0.    2361.10    40.01    8.50    6.37    1.35        1017.70      285.56   2321.09    -48.87    27.60    11.38    26.09
 2015  44  8  0  0.    2361.90    40.58    8.30    6.45    1.32        1017.80      284.86   2321.32    -48.13    27.54    11.73    25.97
 2015  44  9  0  0.    2371.70    48.33    8.50    7.66    1.35        1018.70      283.76   2323.37    -47.40    27.48    12.09    25.85
 2015  44 10  0  0.    2369.00    43.35    8.70    6.86    1.38        1019.70      283.06   2325.65    -46.67    27.43    12.44    25.73
 2015  44 11  0  0.    2368.40    41.38    7.70    6.53    1.22        1020.30      282.04   2327.02    -45.93    27.37    12.80    25.61
 2015  44 12  0  0.    2366.20    38.65    7.60    6.09    1.20        1020.53      281.46   2327.55    -45.20    27.31    13.15    25.49
 2015  44 13  0  0.    2361.00    33.07    7.90    5.21    1.24        1020.70      281.26   2327.93    -44.47    27.25    13.50    25.37
 2015  44 14  0  0.    2357.90    29.97    7.80    4.72    1.23        1020.70      281.26   2327.93    -43.73    27.19    13.86    25.25
 2015  44 15  0  0.    2358.30    30.83    7.60    4.86    1.20        1020.50      281.16   2327.47    -43.00    27.13    14.21    25.13
 2015  44 16  0  0.    2357.80    31.70    7.60    4.99    1.20        1019.90      280.96   2326.10    -42.27    27.07    14.57    25.00
 2015  44 17  0  0.    2359.80    33.70    7.50    5.31    1.18        1019.90      281.16   2326.10    -41.53    27.02    14.92    24.88
 2015  44 18  0  0.    2359.20    34.46    7.30    5.43    1.15        1019.30      281.16   2324.74    -40.80    26.96    15.27    24.76
 2015  44 19  0  0.    2357.90    34.30    7.50    5.40    1.18        1018.80      280.96   2323.60    -40.07    26.90    15.63    24.63
 2015  44 20  0  0.    2362.60    39.80    7.50    6.26    1.18        1018.45      280.86   2322.80    -39.33    26.84    15.98    24.51
 2015  44 21  0  0.    2364.20    42.20    7.20    6.64    1.13        1018.10      280.66   2322.00    -38.60    26.78    16.34    24.38
 2015  44 22  0  0.    2366.80    44.57    7.70    7.02    1.21        1018.20      280.96   2322.23    -37.87    26.72    16.69    24.25
 2015  44 23  0  0.    2361.40    38.89    7.50    6.12    1.18        1018.32      281.06   2322.51    -37.13    26.66    17.05    24.13
 2015  45  0  0  0.    2361.60    38.92   12.90    6.14    2.04        1018.40      282.01   2322.68    -36.40    26.60    17.40    24.00
