* Estimated atmospheric values for TJCH. Height estimate:    36.8516 +/- 0.1282 m.
* METUTIL Version 3.0  2009-08-27
* Input files: otesta.042                  tjch0420.15m  ZTD-file sigmas scaled by   1.0
* Yr  Doy Hr Mn Sec  Total Zen  Wet Zen  Sig Zen    PW   Sig PW (mm)  Press (hPa)  Temp (K) ZHD (mm)   Grad NS   Sig NS  Grad EW   Sig EW (mm)
 2015  42  0  0  0.    2365.20    48.45   12.50    7.60    1.96        1015.80      279.36   2316.75    -44.90    28.50     6.80    28.40
 2015  42  1  0  0.    2369.30    51.86   11.20    8.16    1.76        1016.10      280.86   2317.44    -44.49    28.46     6.83    28.27
 2015  42  2  0  0.    2358.90    42.60    9.00    6.74    1.42        1015.60      282.86   2316.30    -44.08    28.42     6.85    28.14
 2015  42  3  0  0.    2357.70    42.77    8.30    6.80    1.32        1015.00      284.66   2314.93    -43.66    28.38     6.88    28.01
 2015  42  4  0  0.    2357.00    44.81    8.90    7.14    1.42        1013.80      285.56   2312.19    -43.25    28.34     6.90    27.88
 2015  42  5  0  0.    2351.00    41.77    8.40    6.68    1.34        1012.50      286.86   2309.23    -42.84    28.29     6.92    27.74
 2015  42  6  0  0.    2350.20    42.11    8.60    6.74    1.38        1012.00      287.36   2308.09    -42.43    28.25     6.95    27.61
 2015  42  7  0  0.    2351.00    44.28    8.90    7.09    1.43        1011.40      287.66   2306.72    -42.01    28.21     6.97    27.48
 2015  42  8  0  0.    2347.60    40.89    8.70    6.45    1.37        1011.40      281.55   2306.71    -41.60    28.17     7.00    27.34
 2015  42  9  0  0.    2354.60    47.65    8.80    7.62    1.41        1011.50      286.86   2306.95    -41.19    28.13     7.03    27.21
 2015  42 10  0  0.    2353.90    46.27    8.70    7.38    1.39        1011.80      286.16   2307.63    -40.78    28.09     7.05    27.07
 2015  42 11  0  0.    2357.80    48.80    8.00    7.77    1.27        1012.40      285.56   2309.00    -40.36    28.05     7.08    26.94
 2015  42 12  0  0.    2357.20    47.52    8.90    7.56    1.42        1012.70      285.26   2309.68    -39.95    28.00     7.10    26.80
 2015  42 13  0  0.    2364.20    54.29    9.30    8.63    1.48        1012.80      284.86   2309.91    -39.54    27.96     7.12    26.66
 2015  42 14  0  0.    2373.30    62.70    8.40    9.97    1.34        1013.10      284.96   2310.60    -39.12    27.92     7.15    26.52
 2015  42 15  0  0.    2364.00    52.72    7.80    8.39    1.24        1013.40      285.06   2311.28    -38.71    27.88     7.17    26.39
 2015  42 16  0  0.    2355.60    43.64    8.00    6.93    1.27        1013.70      284.16   2311.96    -38.30    27.84     7.20    26.25
 2015  42 17  0  0.    2352.60    40.18    7.90    6.37    1.25        1013.90      283.76   2312.42    -37.89    27.80     7.23    26.11
 2015  42 18  0  0.    2349.80    37.61    7.80    5.95    1.24        1013.80      283.16   2312.19    -37.48    27.75     7.25    25.96
 2015  42 19  0  0.    2347.40    34.75    7.70    5.49    1.22        1014.00      282.46   2312.65    -37.06    27.71     7.28    25.82
 2015  42 20  0  0.    2357.50    44.40    8.10    7.00    1.28        1014.20      281.46   2313.10    -36.65    27.67     7.30    25.68
 2015  42 21  0  0.    2356.00    41.53    7.70    6.54    1.21        1014.80      280.81   2314.47    -36.24    27.63     7.33    25.54
 2015  42 22  0  0.    2353.80    37.50    8.20    5.89    1.29        1015.60      280.36   2316.30    -35.83    27.58     7.35    25.39
 2015  42 23  0  0.    2356.10    37.75    8.00    5.93    1.26        1016.50      279.86   2318.35    -35.41    27.54     7.38    25.25
 2015  43  0  0  0.    2354.70    34.75   12.80    5.46    2.01        1017.20      279.96   2319.95    -35.00    27.50     7.40    25.10
