* Estimated atmospheric values for TJCH. Height estimate:    36.8816 +/- 0.1120 m.
* METUTIL Version 3.0  2009-08-27
* Input files: otesta.038                  tjch0380.15m  ZTD-file sigmas scaled by   1.0
* Yr  Doy Hr Mn Sec  Total Zen  Wet Zen  Sig Zen    PW   Sig PW (mm)  Press (hPa)  Temp (K) ZHD (mm)   Grad NS   Sig NS  Grad EW   Sig EW (mm)
 2015  38  0  0  0.    2370.10    37.15   11.80    5.80    1.84        1022.90      277.86   2332.95    -26.50    27.40    23.80    26.00
 2015  38  1  0  0.    2367.90    34.73    9.70    5.46    1.52        1023.00      280.16   2333.17    -26.89    27.34    23.28    25.88
 2015  38  2  0  0.    2362.90    29.50    9.20    4.66    1.45        1023.10      282.13   2333.40    -27.27    27.28    22.77    25.76
 2015  38  3  0  0.    2359.70    26.98    8.10    4.27    1.28        1022.80      282.86   2332.72    -27.66    27.22    22.25    25.63
 2015  38  4  0  0.    2356.30    24.95    8.60    3.95    1.36        1022.20      283.31   2331.35    -28.05    27.16    21.73    25.51
 2015  38  5  0  0.    2355.10    26.49    8.20    4.20    1.30        1021.00      283.96   2328.61    -28.44    27.09    21.22    25.39
 2015  38  6  0  0.    2361.00    33.30    8.40    5.30    1.34        1020.60      285.16   2327.70    -28.82    27.03    20.70    25.26
 2015  38  7  0  0.    2363.10    37.11    8.80    5.89    1.40        1019.85      284.06   2325.99    -29.21    26.97    20.18    25.14
 2015  38  8  0  0.    2359.10    33.22    8.00    5.27    1.27        1019.80      283.96   2325.88    -29.60    26.91    19.67    25.01
 2015  38  9  0  0.    2371.00    42.61    8.70    6.75    1.38        1020.90      283.20   2328.39    -29.99    26.85    19.15    24.88
 2015  38 10  0  0.    2378.00    47.79    7.80    7.56    1.23        1021.70      282.76   2330.21    -30.37    26.79    18.63    24.76
 2015  38 11  0  0.    2382.40    49.91    7.70    7.88    1.22        1022.70      281.96   2332.49    -30.76    26.72    18.12    24.63
 2015  38 12  0  0.    2386.60    53.88    7.90    8.50    1.25        1022.80      281.56   2332.72    -31.15    26.66    17.60    24.50
 2015  38 13  0  0.    2392.20    58.34    7.60    9.20    1.20        1023.30      281.56   2333.86    -31.54    26.60    17.08    24.37
 2015  38 14  0  0.    2387.30    53.21    7.90    8.39    1.25        1023.40      281.46   2334.09    -31.92    26.54    16.57    24.24
 2015  38 15  0  0.    2393.30    57.62    7.10    9.08    1.12        1024.10      281.46   2335.68    -32.31    26.47    16.05    24.11
 2015  38 16  0  0.    2397.10    60.05    7.20    9.46    1.13        1024.70      281.06   2337.05    -32.70    26.41    15.53    23.98
 2015  38 17  0  0.    2404.50    64.37    7.30   10.08    1.14        1026.05      278.96   2340.13    -33.09    26.35    15.02    23.85
 2015  38 18  0  0.    2407.20    66.04    7.60   10.34    1.19        1026.50      278.66   2341.16    -33.47    26.28    14.50    23.71
 2015  38 19  0  0.    2398.30    56.00    7.10    8.75    1.11        1027.00      278.16   2342.30    -33.86    26.22    13.98    23.58
 2015  38 20  0  0.    2392.70    49.03    7.70    7.65    1.20        1027.60      277.46   2343.67    -34.25    26.16    13.47    23.45
 2015  38 21  0  0.    2386.00    40.74    7.00    6.34    1.09        1028.30      276.66   2345.26    -34.64    26.09    12.95    23.31
 2015  38 22  0  0.    2381.20    34.57    7.30    5.37    1.13        1028.90      275.96   2346.63    -35.02    26.03    12.43    23.17
 2015  38 23  0  0.    2376.10    26.96    8.10    4.18    1.26        1030.00      275.21   2349.14    -35.41    25.96    11.92    23.04
 2015  39  0  0  0.    2375.70    29.75   10.60    4.64    1.65        1028.60      277.36   2345.95    -35.80    25.90    11.40    22.90
